File: images/spectra/ManuelaSchiek/2021-07-05 NoP PMMA 40mgmL med speed INT_1.txt
NoP PMMA 40mgmL
Wavelength (nm)	Intensity
191.458	0.011020
196.247	0.004224
201.036	0.002553
205.827	0.002216
210.618	0.001915
215.41	0.001921
220.202	0.001927
224.995	0.001547
229.788	0.001631
234.582	0.001433
239.377	0.001308
244.172	0.001406
248.967	0.001690
253.763	0.002045
258.56	0.002099
263.357	0.002603
268.155	0.002932
272.953	0.003232
277.751	0.003593
282.55	0.004108
287.349	0.004641
292.149	0.007351
296.949	0.021510
301.749	0.055886
306.55	0.120716
311.351	0.218049
316.152	0.331906
320.954	0.447780
325.756	0.559150
330.558	0.636043
335.36	0.702990
340.163	0.750537
344.966	0.783147
349.769	0.804552
354.572	0.819577
359.376	0.829617
364.179	0.837583
368.983	0.842951
373.787	0.845098
378.591	0.843183
383.395	0.843531
388.199	0.847461
393.003	0.851364
397.807	0.853289
402.612	0.854675
407.416	0.855067
412.22	0.856228
417.025	0.855837
421.829	0.855843
426.633	0.856506
431.437	0.856605
436.241	0.857930
441.046	0.858013
445.849	0.858993
450.653	0.859942
455.457	0.860929
460.261	0.861501
465.064	0.861913
469.867	0.861874
474.67	0.862902
479.473	0.863274
484.276	0.864008
489.078	0.863926
493.88	0.863648
498.682	0.864759
503.483	0.865446
508.285	0.866122
513.086	0.865905
517.886	0.866111
522.687	0.867576
527.486	0.867936
532.286	0.868500
537.085	0.868832
541.884	0.870054
546.682	0.870043
551.48	0.870711
556.278	0.870697
561.075	0.870940
565.871	0.871170
570.667	0.871464
575.463	0.871742
580.258	0.871896
585.052	0.871954
589.846	0.871935
594.639	0.871733
599.432	0.871426
604.224	0.871072
609.016	0.871044
613.807	0.870585
618.597	0.870170
623.386	0.869994
628.175	0.869432
632.963	0.869938
637.751	0.869211
642.538	0.868696
647.324	0.868960
652.109	0.869050
656.893	0.868372
661.677	0.868323
666.46	0.868702
671.242	0.868280
676.024	0.868943
680.804	0.868766
685.584	0.868328
690.362	0.868215
695.14	0.867781
699.917	0.868057
704.693	0.868511
709.468	0.868284
714.242	0.868905
719.015	0.868190
723.788	0.867415
728.559	0.868147
733.329	0.867558
738.098	0.867188
742.866	0.866445
747.633	0.866616
752.399	0.866506
757.164	0.866518
761.928	0.865990
766.691	0.865370
771.452	0.864935
776.212	0.864488
780.972	0.864202
785.73	0.863914
790.487	0.863483
795.242	0.862649
799.997	0.862113
804.75	0.861847
809.502	0.861326
814.253	0.860482
819.002	0.860701
823.75	0.859615
828.497	0.859539
833.242	0.859417
837.986	0.858434
842.729	0.857879
847.47	0.858190
852.21	0.857770
856.949	0.856352
861.686	0.856632
866.422	0.856657
871.156	0.855588
875.889	0.854711
880.62	0.854954
885.35	0.854740
890.078	0.854032
894.805	0.855039
899.53	0.854904
904.254	0.854775
908.976	0.853531
913.697	0.853745
918.416	0.854413
923.133	0.853800
927.849	0.853919
932.563	0.852262
937.275	0.854258
941.986	0.854124
946.695	0.852280
951.402	0.852695
956.108	0.855053
960.811	0.853037
965.513	0.853846
970.214	0.853257
974.912	0.853509
979.609	0.854244
984.304	0.853825
988.997	0.854772
993.688	0.853177
998.378	0.854886
1016.81	0.852949
1027.09	0.853064
1037.38	0.852773
1047.66	0.855235
1057.95	0.856085
1068.23	0.862863
1078.51	0.861325
1088.8	0.868743
1099.08	0.870550
1109.37	0.872409
1119.65	0.873237
1129.94	0.872195
1140.22	0.874168
1150.51	0.873731
1160.8	0.875751
1171.09	0.872916
1181.38	0.878150
1191.67	0.874368
1201.96	0.878595
1212.26	0.874615
1222.55	0.881968
1232.85	0.875667
1243.15	0.878744
1253.45	0.876999
1263.75	0.880881
1274.05	0.877224
1284.36	0.882972
1294.66	0.878783
1304.97	0.888213
1315.28	0.879963
1325.6	0.888479
1335.91	0.879953
1346.23	0.888402
1356.55	0.888721
1366.88	0.879424
1377.2	0.891757
1387.53	0.876117
1397.87	0.886556
1408.2	0.877249
1418.54	0.893749
1428.88	0.886608
1439.22	0.894441
1449.57	0.885468
1459.92	0.897444
1470.28	0.886096
1480.64	0.897878
1491	0.880757
1501.36	0.897956
1511.73	0.884914
1522.11	0.890005
1532.48	0.883475
1542.87	0.889134
1553.25	0.886805
1563.64	0.885383
1574.04	0.890253
1584.43	0.887113
1594.84	0.888518
1605.25	0.887963
1615.66	0.890591
1626.08	0.886027
1636.5	0.890196
1646.93	0.891157
1657.36	0.890586
1667.8	0.890493
1678.24	0.890152
1688.69	0.890076